#Regul_Temp      20.00                                                                              
#Sample_Temp     19.96                                                                              
#Voltmeter        6.54                                                                              
#Magnetic_Field   4.00                                                                              
#Wavelength    0.4200
#Orientation  0.4127  0.6207 -0.6666  0.3655  0.5575  0.7454  0.8343 -0.5513  0.0032
#Polarisation   -0.6666    0.7454    0.0032    0.9270   -0.9270
    2    0    0  -2.22467   0.07863
    4    0    0   9.59657   0.04729
    8    0    0   1.38016   0.10578
    2    2    0  15.05006   1.19004
    6    2    0   3.18734   0.11208
    4    4    0   3.94480   0.07065
    6    6    0   0.40690   0.18732
    1    1    1   8.98175   0.06108
    3    1    1   6.72967   0.37375
    2    2    2  -0.96910   0.21527
    4    2    2   6.36017   0.08620
    8    2    2   0.78018   0.10152
    6    4    2   1.32680   0.05027
    4    4    4   1.53950   0.08509
    8    4    4  -0.18817   0.11398
    6    6    4  -0.27647   0.13397
