#Regul_Temp      20.00                                                                              
#Sample_Temp     19.96                                                                              
#Voltmeter        7.96                                                                              
#Magnetic_Field   4.00                                                                              
#Wavelength    0.5200
#Orientation  0.4127  0.6207 -0.6666  0.3655  0.5575  0.7454  0.8343 -0.5513  0.0032
#Polarisation   -0.6666    0.7454    0.0032    0.9400   -0.9400
    2    0    0  -2.05165   0.03231
    4    0    0   9.80133   0.09749
    8    0    0   1.49305   0.09793
   12    0    0   0.17441   0.11278
    2    2    0  14.69049   0.15723
    4    2    0  -1.01573   0.30359
    6    2    0   3.03911   0.16207
   10    2    0   0.40352   0.17360
    4    4    0   3.99656   0.09421
    1    1    1   8.56563   0.04775
    3    1    1   5.73191   0.16822
    2    2    2  -1.40131   0.08705
    4    2    2   6.35182   0.08751
    6    2    2  -0.31561   0.40587
   12    2    2   0.04936   0.09236
    4    4    2  -0.48294   0.41221
    6    4    2   1.27039   0.05654
   10    4    2   0.03964   0.14641
    8    6    2  -0.22580   0.13138
   10    8    2  -0.36152   0.08554
    4    4    4   1.60253   0.12257
    8    4    4  -0.03799   0.09621
   12    4    4  -0.28135   0.09907
    6    6    4  -0.19588   0.04529
   10    6    4  -0.52588   0.14960
    8    6    6  -0.46070   0.08820
    8    8    8  -0.41933   0.16176
