#Regul_Temp      20.00                                                                              
#Sample_Temp     19.96                                                                              
#Voltmeter        8.21                                                                              
#Magnetic_Field   4.00                                                                              
#Wavelength    0.8250
#Orientation  0.4127  0.6207 -0.6666  0.3655  0.5575  0.7454  0.8343 -0.5513  0.0032
#Polarisation   -0.6666    0.7454    0.0032    0.9570   -0.9570
    2    0    0  -2.12915   0.01907
    4    0    0   9.66766   0.07219
    6    0    0  -0.31550   0.07413
    8    0    0   1.45738   0.06386
    2    2    0  15.18046   0.81023
    4    2    0  -0.96637   0.04524
    6    2    0   3.19708   0.03812
    4    4    0   3.86140   0.05581
    6    6    0   0.29612   0.08916
    1    1    1   8.24921   0.03257
    3    1    1   5.00450   0.15469
    3    3    1   2.64603   0.11029
    2    2    2  -1.51287   0.01528
    4    2    2   6.35079   0.09797
    6    2    2  -0.33686   0.14006
    8    2    2   0.78283   0.07735
    4    4    2  -0.60648   0.04448
    6    4    2   1.22589   0.06296
    5    3    3   0.84439   0.15770
    4    4    4   1.60618   0.03947
    8    4    4  -0.12024   0.05767
    6    6    4  -0.16844   0.04780
