#Regul_Temp      25.00                                                                              
#Sample_Temp     24.95                                                                              
#Voltmeter        0.70                                                                              
#Magnetic_Field   5.00                                                                              
#Wavelength    0.8250                                                                               
#Orientation  0.0660 -0.0167  0.9977 -0.8328  0.5498  0.0642 -0.5496 -0.8351  0.0224
#Polarisation    0.9977    0.0642    0.0224    0.9500   -0.9500
   0.500   1.000   0.250  -0.0496  0.0036
   0.500   2.000   0.250  -0.0368  0.0043
   0.500   3.000   0.250  -0.0153  0.0025
   0.500   1.000   0.750   0.0187  0.0014
   0.500   1.000   1.250   0.0242  0.0018
   0.500   2.000   0.750  -0.0090  0.0013
   0.500   2.000   1.250  -0.0179  0.0025
   0.500   3.000   0.750   0.0093  0.0031
   0.500   1.000   1.750  -0.0127  0.0011
   0.500   1.000   2.250   0.0044  0.0011
   0.500   2.000   1.750  -0.0157  0.0023
   0.500   3.000   1.750  -0.0218  0.0070