#Regul_Temp      20.00                                                                              
#Sample_Temp     19.96                                                                              
#Voltmeter        8.21                                                                              
#Magnetic_Field   4.00                                                                              
#Wavelength    0.8250 HalfWave    0.0037                                                            
#Orientation  0.4127  0.6207 -0.6666  0.3655  0.5575  0.7454  0.8343 -0.5513  0.0032
#Polarisation   -0.6666    0.7454    0.0032    0.9570   -0.9570
    2    0    0  -2.23336   0.02128
    4    0    0   8.36973   0.06234
    6    0    0  -0.33077   0.07782
    8    0    0   1.29200   0.05661
    2    2    0  12.89897   0.67590
    4    2    0  -1.00678   0.04745
    6    2    0   2.81642   0.03357
    4    4    0   3.38950   0.04897
    6    6    0   0.26275   0.07911
    1    1    1   8.19588   0.03299
    3    1    1   4.92488   0.08071
    3    3    1   3.03890   1.40218
    2    2    2  -1.57747   0.01628
    4    2    2   5.54482   0.08527
    6    2    2  -0.35473   0.14787
    8    2    2   0.69521   0.06867
    4    4    2  -0.63656   0.04687
    6    4    2   1.08519   0.05569
    5    3    3   0.92382   0.17667
    4    4    4   1.41882   0.03487
    8    4    4  -0.12215   0.04980
    6    6    4  -0.14983   0.04252
